# Step     T (K)     E_KS (eV)    E_tot (eV)   Vol (A^3)    P (kBar)
     1   7863.11    -900.60190    -897.55286    1000.000       3.252
     2   7845.69    -900.59409    -897.55180    1000.000       3.804
     3   7829.16    -900.58721    -897.55133    1000.000       4.131
     4   7825.80    -900.58707    -897.55250    1000.000       4.203
     5   7808.93    -900.58026    -897.55223    1000.000       4.124
     6   7788.34    -900.57139    -897.55134    1000.000       4.050
     7   7800.56    -900.57623    -897.55145    1000.000       4.043
     8   7844.03    -900.59376    -897.55212    1000.000       4.116
     9   7876.76    -900.60701    -897.55267    1000.000       4.223
    10   7888.34    -900.61146    -897.55264    1000.000       4.159
    11   7890.89    -900.61564    -897.55583    1000.000       3.927
    12   7870.94    -900.61067    -897.55860    1000.000       3.406
    13   7797.94    -900.57973    -897.55596    1000.000       3.013
    14   7658.12    -900.52754    -897.55799    1000.000       2.847
    15   7445.88    -900.44748    -897.56023    1000.000       2.985
    16   7080.12    -900.30806    -897.56264    1000.000       3.591
    17   6453.93    -900.06660    -897.56399    1000.000       4.432
    18   5527.12    -899.70260    -897.55938    1000.000       5.448
    19   4321.62    -899.22936    -897.55359    1000.000       6.516
    20   2971.84    -898.69956    -897.54719    1000.000       7.416
    21   1792.45    -898.23187    -897.53682    1000.000       7.827
    22   1122.99    -897.96973    -897.53427    1000.000       7.803
    23   1127.58    -897.97443    -897.53720    1000.000       7.346
    24   1764.58    -898.22573    -897.54149    1000.000       6.810
    25   2877.66    -898.66026    -897.54440    1000.000       6.362
    26   4225.52    -899.19053    -897.55202    1000.000       6.222
    27   5439.46    -899.66881    -897.55958    1000.000       6.248
    28   6242.50    -899.97527    -897.55465    1000.000       6.494
    29   6842.99    -900.20241    -897.54894    1000.000       6.211
    30   7353.14    -900.40704    -897.55575    1000.000       5.275
    31   7555.11    -900.47837    -897.54876    1000.000       4.278
    32   7574.34    -900.47843    -897.54137    1000.000       3.549
    33   7665.16    -900.51308    -897.54079    1000.000       3.127
    34   7842.70    -900.58798    -897.54686    1000.000       3.112
    35   7901.95    -900.61446    -897.55036    1000.000       3.453
    36   7793.14    -900.56063    -897.53872    1000.000       3.696
    37   7802.92    -900.56814    -897.54244    1000.000       3.184
    38   7856.11    -900.59661    -897.55028    1000.000       2.187
    39   7730.44    -900.54169    -897.54410    1000.000       1.337
    40   7590.20    -900.48233    -897.53911    1000.000       0.832
    41   7613.66    -900.49369    -897.54138    1000.000       0.781
    42   7726.74    -900.54483    -897.54867    1000.000       1.252
    43   7709.01    -900.53737    -897.54809    1000.000       2.067
    44   7626.92    -900.49435    -897.53690    1000.000       2.607
    45   7729.32    -900.54483    -897.54768    1000.000       2.371
    46   7794.01    -900.57302    -897.55078    1000.000       1.897
    47   7697.79    -900.52910    -897.54416    1000.000       1.663
    48   7653.49    -900.50940    -897.54165    1000.000       1.788
    49   7764.62    -900.55654    -897.54569    1000.000       2.355
    50   7873.43    -900.60519    -897.55215    1000.000       3.358
    51   7796.49    -900.56897    -897.54577    1000.000       4.461
    52   7735.69    -900.53879    -897.53916    1000.000       4.927
    53   7829.89    -900.58728    -897.55112    1000.000       4.547
    54   7804.09    -900.57486    -897.54871    1000.000       3.971
    55   7679.84    -900.52001    -897.54204    1000.000       3.523
    56   7678.01    -900.51870    -897.54143    1000.000       3.318
    57   7821.13    -900.58015    -897.54739    1000.000       3.456
    58   7896.90    -900.61458    -897.55244    1000.000       3.927
    59   7795.01    -900.56458    -897.54195    1000.000       4.306
    60   7783.79    -900.56095    -897.54267    1000.000       3.946
    61   7841.86    -900.59300    -897.55220    1000.000       3.015
    62   7705.78    -900.53475    -897.54672    1000.000       2.209
    63   7500.68    -900.44990    -897.54139    1000.000       1.737
    64   7426.53    -900.42241    -897.54266    1000.000       1.685
    65   7446.33    -900.43677    -897.54934    1000.000       2.127
    66   7346.91    -900.39923    -897.55036    1000.000       2.935
    67   7153.60    -900.31170    -897.53779    1000.000       3.554
    68   7155.01    -900.32000    -897.54554    1000.000       3.414
    69   7193.96    -900.33997    -897.55040    1000.000       2.922
    70   7103.75    -900.29834    -897.54375    1000.000       2.603
    71   7074.46    -900.28370    -897.54047    1000.000       2.574
    72   7231.50    -900.34808    -897.54395    1000.000       2.934
    73   7445.47    -900.43835    -897.55125    1000.000       3.719
    74   7493.48    -900.45432    -897.54861    1000.000       4.725
    75   7488.48    -900.44249    -897.53872    1000.000       5.275
    76   7635.78    -900.51128    -897.55039    1000.000       4.991
    77   7688.97    -900.53244    -897.55092    1000.000       4.441
    78   7592.86    -900.48811    -897.54387    1000.000       3.992
    79   7574.50    -900.47888    -897.54175    1000.000       3.744
    80   7715.62    -900.53811    -897.54626    1000.000       3.800
    81   7844.97    -900.59433    -897.55233    1000.000       4.182
    82   7794.89    -900.56739    -897.54480    1000.000       4.583
    83   7777.77    -900.55612    -897.54017    1000.000       4.321
    84   7883.24    -900.60864    -897.55180    1000.000       3.331
    85   7832.87    -900.58590    -897.54859    1000.000       2.293
    86   7676.90    -900.51886    -897.54203    1000.000       1.526
    87   7637.68    -900.50313    -897.54151    1000.000       1.155
    88   7732.65    -900.54554    -897.54709    1000.000       1.284
    89   7755.43    -900.55804    -897.55075    1000.000       1.852
    90   7631.84    -900.49908    -897.53972    1000.000       2.394
    91   7643.30    -900.50663    -897.54283    1000.000       2.234
    92   7734.15    -900.55085    -897.55182    1000.000       1.595
    93   7662.07    -900.51728    -897.54619    1000.000       1.116
    94   7572.74    -900.47776    -897.54132    1000.000       0.991
    95   7643.44    -900.50726    -897.54340    1000.000       1.319
    96   7798.01    -900.57447    -897.55067    1000.000       2.154
    97   7804.53    -900.57683    -897.55050    1000.000       3.313
    98   7711.67    -900.52903    -897.53872    1000.000       4.163
    99   7776.86    -900.56416    -897.54857    1000.000       4.161
   100   7797.48    -900.57526    -897.55167    1000.000       3.800
   101   7651.42    -900.51130    -897.54435    1000.000       3.548
   102   7560.49    -900.47284    -897.54115    1000.000       3.507
   103   7645.91    -900.50979    -897.54497    1000.000       3.764
   104   7761.96    -900.56154    -897.55172    1000.000       4.335
   105   7714.94    -900.53764    -897.54605    1000.000       4.934
   106   7684.97    -900.51920    -897.53924    1000.000       4.872
   107   7808.36    -900.57928    -897.55147    1000.000       3.969
   108   7798.99    -900.57371    -897.54954    1000.000       2.924
   109   7663.72    -900.51457    -897.54285    1000.000       2.103
   110   7628.05    -900.49988    -897.54199    1000.000       1.641
   111   7727.38    -900.54409    -897.54768    1000.000       1.656
   112   7761.94    -900.56215    -897.55234    1000.000       2.111
   113   7634.58    -900.50198    -897.54155    1000.000       2.574
   114   7621.79    -900.49797    -897.54251    1000.000       2.353
   115   7704.48    -900.53964    -897.55211    1000.000       1.611
   116   7628.81    -900.50486    -897.54668    1000.000       1.001
   117   7525.67    -900.45958    -897.54139    1000.000       0.742
   118   7584.91    -900.48407    -897.54291    1000.000       0.935
   119   7747.21    -900.55414    -897.55004    1000.000       1.647
   120   7779.51    -900.56758    -897.55096    1000.000       2.730
   121   7701.89    -900.52568    -897.53916    1000.000       3.579
   122   7779.15    -900.56453    -897.54805    1000.000       3.619
   123   7827.24    -900.58728    -897.55215    1000.000       3.301
   124   7693.96    -900.52853    -897.54508    1000.000       3.130
   125   7590.27    -900.48473    -897.54149    1000.000       3.205
   126   7652.96    -900.51251    -897.54496    1000.000       3.604
   127   7754.78    -900.55882    -897.55179    1000.000       4.336
   128   7698.46    -900.53224    -897.54704    1000.000       5.121
   129   7647.97    -900.50462    -897.53900    1000.000       5.260
   130   7769.76    -900.56425    -897.55141    1000.000       4.495
   131   7784.17    -900.56881    -897.55038    1000.000       3.503
   132   7669.17    -900.51725    -897.54342    1000.000       2.686
   133   7646.01    -900.50675    -897.54190    1000.000       2.184
   134   7759.58    -900.55597    -897.54707    1000.000       2.120
   135   7814.29    -900.58232    -897.55221    1000.000       2.485
   136   7692.46    -900.52508    -897.54222    1000.000       2.884
   137   7662.08    -900.51263    -897.54154    1000.000       2.608
   138   7737.24    -900.55184    -897.55161    1000.000       1.762
   139   7655.35    -900.51483    -897.54635    1000.000       1.021
   140   7531.48    -900.46103    -897.54059    1000.000       0.623
   141   7567.30    -900.47593    -897.54159    1000.000       0.676
   142   7722.63    -900.54298    -897.54842    1000.000       1.250
   143   7768.37    -900.56248    -897.55018    1000.000       2.226
   144   7698.53    -900.52343    -897.53821    1000.000       3.032
   145   7783.88    -900.56411    -897.54580    1000.000       3.064
   146   7865.76    -900.60137    -897.55130    1000.000       2.723
   147   7761.50    -900.55419    -897.54455    1000.000       2.543
   148   7664.46    -900.51264    -897.54064    1000.000       2.658
   149   7722.44    -900.53806    -897.54357    1000.000       3.140
   150   7824.79    -900.58458    -897.55040    1000.000       3.996
   151   7767.19    -900.55866    -897.54682    1000.000       4.967
   152   7685.51    -900.51709    -897.53692    1000.000       5.362
   153   7786.45    -900.56794    -897.54863    1000.000       4.817
   154   7811.88    -900.57829    -897.54911    1000.000       3.954
   155   7702.04    -900.52898    -897.54240    1000.000       3.210
   156   7674.88    -900.51667    -897.54062    1000.000       2.722
   157   7796.41    -900.56880    -897.54562    1000.000       2.623
   158   7883.54    -900.60857    -897.55160    1000.000       2.933
   159   7782.62    -900.56103    -897.54321    1000.000       3.309
   160   7731.35    -900.53755    -897.53960    1000.000       3.056
   161   7802.53    -900.57645    -897.55090    1000.000       2.153
   162   7724.24    -900.54231    -897.54712    1000.000       1.287
   163   7571.88    -900.47693    -897.54082    1000.000       0.739
   164   7562.48    -900.47341    -897.54094    1000.000       0.624
   165   7692.69    -900.53016    -897.54720    1000.000       1.025
   166   7744.81    -900.55360    -897.55043    1000.000       1.864
   167   7663.38    -900.51010    -897.53851    1000.000       2.635
   168   7724.61    -900.53808    -897.54275    1000.000       2.678
   169   7830.55    -900.58681    -897.55040    1000.000       2.274
   170   7753.33    -900.55112    -897.54465    1000.000       2.026
   171   7655.60    -900.50903    -897.54046    1000.000       2.098
   172   7705.18    -900.53083    -897.54303    1000.000       2.570
   173   7816.17    -900.58121    -897.55038    1000.000       3.472
   174   7771.15    -900.56228    -897.54890    1000.000       4.583
   175   7658.33    -900.50682    -897.53719    1000.000       5.237
   176   7726.37    -900.54351    -897.54750    1000.000       4.947
   177   7752.81    -900.55567    -897.54940    1000.000       4.259
   178   7636.36    -900.50339    -897.54228    1000.000       3.641
   179   7593.27    -900.48415    -897.53975    1000.000       3.232
   180   7716.12    -900.53625    -897.54421    1000.000       3.161
   181   7835.57    -900.58925    -897.55089    1000.000       3.461
   182   7767.43    -900.55599    -897.54405    1000.000       3.845
   183   7717.81    -900.53106    -897.53837    1000.000       3.621
   184   7802.02    -900.57558    -897.55024    1000.000       2.676
   185   7742.24    -900.54941    -897.54724    1000.000       1.707
   186   7580.80    -900.48009    -897.54052    1000.000       1.033
   187   7545.35    -900.46583    -897.54001    1000.000       0.775
   188   7656.13    -900.51484    -897.54605    1000.000       1.030
   189   7704.02    -900.53751    -897.55016    1000.000       1.736
   190   7609.73    -900.48969    -897.53891    1000.000       2.424
   191   7649.32    -900.50800    -897.54186    1000.000       2.410
   192   7762.79    -900.56087    -897.55073    1000.000       1.918
   193   7704.68    -900.53256    -897.54495    1000.000       1.572
   194   7618.86    -900.49437    -897.54004    1000.000       1.565
   195   7681.89    -900.52077    -897.54200    1000.000       1.985
   196   7818.70    -900.58092    -897.54910    1000.000       2.880
   197   7802.09    -900.57411    -897.54874    1000.000       4.053
   198   7688.87    -900.51826    -897.53679    1000.000       4.859
   199   7741.90    -900.54838    -897.54634    1000.000       4.757
   200   7762.46    -900.55931    -897.54929    1000.000       4.240
